DATE: 2018/06/07
TIME: 06:47:49
Frequency(Hz),	I(V),	Q(V)
331627927.00,-0.342501,-0.244036
331628027.00,-0.342348,-0.244213
331628128.00,-0.341894,-0.244159
331628228.00,-0.341855,-0.244256
331628329.00,-0.341692,-0.244232
331628429.00,-0.341984,-0.243827
331628530.00,-0.341322,-0.243932
331628630.00,-0.341543,-0.243521
331628731.00,-0.340981,-0.243996
331628831.00,-0.340821,-0.243238
331628932.00,-0.340671,-0.243237
331629032.00,-0.340599,-0.243425
331629133.00,-0.340375,-0.243180
331629233.00,-0.339854,-0.243358
331629334.00,-0.339724,-0.243298
331629434.00,-0.339211,-0.243538
331629535.00,-0.339378,-0.243008
331629635.00,-0.339352,-0.243082
331629736.00,-0.338413,-0.243039
331629836.00,-0.338679,-0.243425
331629937.00,-0.338042,-0.243002
331630037.00,-0.337827,-0.243099
331630138.00,-0.337510,-0.242769
331630238.00,-0.337311,-0.242765
331630339.00,-0.337420,-0.242744
331630439.00,-0.337208,-0.242620
331630540.00,-0.336983,-0.242526
331630640.00,-0.337091,-0.242156
331630741.00,-0.336785,-0.242576
331630841.00,-0.336241,-0.242495
331630942.00,-0.336009,-0.242502
331631042.00,-0.335637,-0.242219
331631143.00,-0.335253,-0.241700
331631243.00,-0.335041,-0.241559
331631344.00,-0.335078,-0.241905
331631444.00,-0.334515,-0.241996
331631545.00,-0.334419,-0.242155
331631645.00,-0.333856,-0.241568
331631746.00,-0.333624,-0.241777
331631846.00,-0.333002,-0.241595
331631947.00,-0.333316,-0.241748
331632047.00,-0.332571,-0.241434
331632148.00,-0.332119,-0.241129
331632248.00,-0.331798,-0.241446
331632349.00,-0.331281,-0.241400
331632449.00,-0.331172,-0.241451
331632550.00,-0.330478,-0.241544
331632650.00,-0.329854,-0.241986
331632751.00,-0.329518,-0.241564
331632851.00,-0.329010,-0.241444
331632952.00,-0.328438,-0.241205
331633052.00,-0.328005,-0.241376
331633153.00,-0.327536,-0.241663
331633253.00,-0.327263,-0.241208
331633354.00,-0.327087,-0.241162
331633454.00,-0.326449,-0.240985
331633555.00,-0.326453,-0.241263
331633655.00,-0.325917,-0.241209
331633756.00,-0.325120,-0.241158
331633856.00,-0.324324,-0.241490
331633957.00,-0.323898,-0.241286
331634057.00,-0.323396,-0.241337
331634158.00,-0.322582,-0.241145
331634258.00,-0.321734,-0.241255
331634359.00,-0.321036,-0.241092
331634459.00,-0.320518,-0.240986
331634560.00,-0.319783,-0.240708
331634660.00,-0.319004,-0.241132
331634761.00,-0.318235,-0.241091
331634861.00,-0.317969,-0.240663
331634962.00,-0.317399,-0.240704
331635062.00,-0.316427,-0.241036
331635163.00,-0.315701,-0.241060
331635263.00,-0.314849,-0.241210
331635364.00,-0.313754,-0.241340
331635464.00,-0.313661,-0.241625
331635565.00,-0.312611,-0.241056
331635665.00,-0.311806,-0.241321
331635766.00,-0.311152,-0.241344
331635866.00,-0.310121,-0.241200
331635967.00,-0.308627,-0.241623
331636067.00,-0.308042,-0.241090
331636168.00,-0.306766,-0.241584
331636268.00,-0.305772,-0.241871
331636369.00,-0.304160,-0.241889
331636469.00,-0.303120,-0.242004
331636570.00,-0.302038,-0.242367
331636670.00,-0.300626,-0.242627
331636771.00,-0.299675,-0.242800
331636871.00,-0.298016,-0.243337
331636972.00,-0.296839,-0.243336
331637072.00,-0.295877,-0.243596
331637173.00,-0.294103,-0.244338
331637273.00,-0.292748,-0.244807
331637374.00,-0.290817,-0.245047
331637474.00,-0.289195,-0.245929
331637575.00,-0.287426,-0.245994
331637675.00,-0.285730,-0.245967
331637776.00,-0.284072,-0.246930
331637876.00,-0.281985,-0.247974
331637977.00,-0.280179,-0.249305
331638077.00,-0.278159,-0.249936
331638178.00,-0.275840,-0.250520
331638278.00,-0.273423,-0.252061
331638379.00,-0.271631,-0.253293
331638479.00,-0.269364,-0.254526
331638580.00,-0.267221,-0.256120
331638680.00,-0.264208,-0.257943
331638781.00,-0.261051,-0.259667
331638881.00,-0.258624,-0.261351
331638982.00,-0.255875,-0.263694
331639082.00,-0.253000,-0.266648
331639183.00,-0.250541,-0.269158
331639283.00,-0.247080,-0.272553
331639384.00,-0.243679,-0.276467
331639484.00,-0.240760,-0.280868
331639585.00,-0.238425,-0.285144
331639685.00,-0.234808,-0.289848
331639786.00,-0.231993,-0.295490
331639886.00,-0.229051,-0.302112
331639987.00,-0.226559,-0.309023
331640087.00,-0.224868,-0.317090
331640188.00,-0.224077,-0.325682
331640288.00,-0.223790,-0.335177
331640389.00,-0.224944,-0.344224
331640489.00,-0.226417,-0.354034
331640590.00,-0.229867,-0.363642
331640690.00,-0.234590,-0.372774
331640791.00,-0.240281,-0.381176
331640891.00,-0.246438,-0.388272
331640992.00,-0.254309,-0.395650
331641092.00,-0.262220,-0.401458
331641193.00,-0.270098,-0.405769
331641293.00,-0.277769,-0.409230
331641394.00,-0.286736,-0.412272
331641494.00,-0.294365,-0.414226
331641595.00,-0.302706,-0.415423
331641695.00,-0.309848,-0.415646
331641796.00,-0.317451,-0.415297
331641896.00,-0.324216,-0.414910
331641997.00,-0.331676,-0.413435
331642097.00,-0.338374,-0.411698
331642198.00,-0.344163,-0.409741
331642298.00,-0.349679,-0.407288
331642399.00,-0.356247,-0.404381
331642499.00,-0.360223,-0.401969
331642600.00,-0.364939,-0.398915
331642700.00,-0.369833,-0.395797
331642801.00,-0.373702,-0.392907
331642901.00,-0.377331,-0.389670
331643002.00,-0.380718,-0.386207
331643102.00,-0.384365,-0.382529
331643203.00,-0.386929,-0.378790
331643303.00,-0.389427,-0.376273
331643404.00,-0.392076,-0.372390
331643504.00,-0.394034,-0.368788
331643605.00,-0.396139,-0.365508
331643705.00,-0.397625,-0.362015
331643806.00,-0.399161,-0.359287
331643906.00,-0.400183,-0.356186
331644007.00,-0.401600,-0.353422
331644107.00,-0.401948,-0.350484
331644208.00,-0.402940,-0.348285
331644308.00,-0.403669,-0.345247
331644409.00,-0.404131,-0.342420
331644509.00,-0.405059,-0.339529
331644610.00,-0.405301,-0.337345
331644710.00,-0.405984,-0.334709
331644811.00,-0.405704,-0.332260
331644911.00,-0.405770,-0.330136
331645012.00,-0.405999,-0.328308
331645112.00,-0.406194,-0.326001
331645213.00,-0.406356,-0.323980
331645313.00,-0.405835,-0.321477
331645414.00,-0.405664,-0.319824
331645514.00,-0.405830,-0.318306
331645615.00,-0.405778,-0.316525
331645715.00,-0.405663,-0.315314
331645816.00,-0.405339,-0.313400
331645916.00,-0.405199,-0.312025
331646017.00,-0.405599,-0.310787
331646117.00,-0.405241,-0.309779
331646218.00,-0.404938,-0.307813
331646318.00,-0.404324,-0.306712
331646419.00,-0.404108,-0.305573
331646519.00,-0.403683,-0.303937
331646620.00,-0.403293,-0.302349
331646720.00,-0.403063,-0.301651
331646821.00,-0.402769,-0.300672
331646921.00,-0.402485,-0.299677
331647022.00,-0.402324,-0.298341
331647122.00,-0.402116,-0.297645
331647223.00,-0.401842,-0.297006
331647323.00,-0.401337,-0.296100
331647424.00,-0.400714,-0.295110
331647524.00,-0.400350,-0.293980
331647625.00,-0.400624,-0.293167
331647725.00,-0.399845,-0.292594
331647826.00,-0.399417,-0.291878
331647927.00,-0.399391,-0.291387
