DATE: 2018/06/07
TIME: 07:24:32
Frequency(Hz),	I(V),	Q(V)
361786728.00,-0.308894,-0.218504
361786828.00,-0.309406,-0.218047
361786929.00,-0.308658,-0.218120
361787029.00,-0.308205,-0.217901
361787130.00,-0.308509,-0.218206
361787230.00,-0.308308,-0.217972
361787331.00,-0.307827,-0.218076
361787431.00,-0.308103,-0.218458
361787532.00,-0.308408,-0.218256
361787632.00,-0.307950,-0.218278
361787733.00,-0.307946,-0.218348
361787833.00,-0.307676,-0.218531
361787934.00,-0.307823,-0.218132
361788034.00,-0.307557,-0.218133
361788135.00,-0.307143,-0.218452
361788235.00,-0.306919,-0.218863
361788336.00,-0.306568,-0.218561
361788436.00,-0.306740,-0.218222
361788537.00,-0.306355,-0.218269
361788637.00,-0.306583,-0.218855
361788738.00,-0.306492,-0.218663
361788838.00,-0.306502,-0.218730
361788939.00,-0.306093,-0.218441
361789039.00,-0.306004,-0.218545
361789140.00,-0.305764,-0.218677
361789240.00,-0.305261,-0.218757
361789341.00,-0.305206,-0.218873
361789441.00,-0.304994,-0.218214
361789542.00,-0.305113,-0.218435
361789642.00,-0.304506,-0.218457
361789743.00,-0.304221,-0.218367
361789843.00,-0.304348,-0.218694
361789944.00,-0.304027,-0.218958
361790044.00,-0.303900,-0.218792
361790145.00,-0.303898,-0.218687
361790245.00,-0.303612,-0.218801
361790346.00,-0.303545,-0.218293
361790446.00,-0.303032,-0.218903
361790547.00,-0.302578,-0.219047
361790647.00,-0.302575,-0.219068
361790748.00,-0.302291,-0.219245
361790848.00,-0.301734,-0.219206
361790949.00,-0.301806,-0.219108
361791049.00,-0.301251,-0.219524
361791150.00,-0.301107,-0.219007
361791250.00,-0.301086,-0.219467
361791351.00,-0.300350,-0.219893
361791451.00,-0.300278,-0.219368
361791552.00,-0.299880,-0.219665
361791652.00,-0.299944,-0.219882
361791753.00,-0.299532,-0.219869
361791853.00,-0.299322,-0.220035
361791954.00,-0.299235,-0.220274
361792054.00,-0.299280,-0.220222
361792155.00,-0.298128,-0.219919
361792255.00,-0.298758,-0.220191
361792356.00,-0.298181,-0.220639
361792456.00,-0.297573,-0.220447
361792557.00,-0.296957,-0.220738
361792657.00,-0.296509,-0.221058
361792758.00,-0.296273,-0.221309
361792858.00,-0.295843,-0.221039
361792959.00,-0.295839,-0.221914
361793059.00,-0.295149,-0.221257
361793160.00,-0.295018,-0.221053
361793260.00,-0.294701,-0.221716
361793361.00,-0.294501,-0.222062
361793461.00,-0.293687,-0.221647
361793562.00,-0.293269,-0.222051
361793662.00,-0.292747,-0.222136
361793763.00,-0.291946,-0.222893
361793863.00,-0.291709,-0.223392
361793964.00,-0.291415,-0.223104
361794064.00,-0.290820,-0.223249
361794165.00,-0.290383,-0.223759
361794265.00,-0.289930,-0.223156
361794366.00,-0.290034,-0.223658
361794466.00,-0.288976,-0.223934
361794567.00,-0.288292,-0.224215
361794667.00,-0.288307,-0.224365
361794768.00,-0.287458,-0.224491
361794868.00,-0.286929,-0.225124
361794969.00,-0.286635,-0.225544
361795069.00,-0.285623,-0.225589
361795170.00,-0.284679,-0.226269
361795270.00,-0.284176,-0.226655
361795371.00,-0.283847,-0.227207
361795471.00,-0.283350,-0.227887
361795572.00,-0.283103,-0.228444
361795672.00,-0.281938,-0.229282
361795773.00,-0.281189,-0.229628
361795873.00,-0.280452,-0.230385
361795974.00,-0.280234,-0.230676
361796074.00,-0.279239,-0.231331
361796175.00,-0.278422,-0.232644
361796275.00,-0.278095,-0.232839
361796376.00,-0.277255,-0.233196
361796476.00,-0.276567,-0.234440
361796577.00,-0.275713,-0.235360
361796677.00,-0.274648,-0.236221
361796778.00,-0.273564,-0.236906
361796878.00,-0.273545,-0.238371
361796979.00,-0.272908,-0.239189
361797079.00,-0.272139,-0.240111
361797180.00,-0.271444,-0.241312
361797280.00,-0.270509,-0.242397
361797381.00,-0.269945,-0.243607
361797481.00,-0.268892,-0.245652
361797582.00,-0.268782,-0.247173
361797682.00,-0.268103,-0.248424
361797783.00,-0.267656,-0.250573
361797883.00,-0.267328,-0.252111
361797984.00,-0.266294,-0.253965
361798084.00,-0.266470,-0.256000
361798185.00,-0.266301,-0.258338
361798285.00,-0.266005,-0.260514
361798386.00,-0.265769,-0.263099
361798486.00,-0.265934,-0.264944
361798587.00,-0.266522,-0.267016
361798687.00,-0.267210,-0.269519
361798788.00,-0.267831,-0.272412
361798888.00,-0.268431,-0.275101
361798989.00,-0.269867,-0.277680
361799089.00,-0.270735,-0.280513
361799190.00,-0.272168,-0.283063
361799290.00,-0.273940,-0.285765
361799391.00,-0.275332,-0.288288
361799491.00,-0.277812,-0.290632
361799592.00,-0.280211,-0.292652
361799692.00,-0.283286,-0.294272
361799793.00,-0.286227,-0.296345
361799893.00,-0.289064,-0.297961
361799994.00,-0.292482,-0.299958
361800094.00,-0.294942,-0.300565
361800195.00,-0.298508,-0.301892
361800295.00,-0.302542,-0.302414
361800396.00,-0.305901,-0.302302
361800496.00,-0.309474,-0.302031
361800597.00,-0.312293,-0.301906
361800697.00,-0.316059,-0.301539
361800798.00,-0.319770,-0.300547
361800898.00,-0.322511,-0.299982
361800999.00,-0.325616,-0.298659
361801099.00,-0.328475,-0.297722
361801200.00,-0.331575,-0.295989
361801300.00,-0.334296,-0.294165
361801401.00,-0.336343,-0.292429
361801501.00,-0.338216,-0.290764
361801602.00,-0.340304,-0.288786
361801702.00,-0.341824,-0.287358
361801803.00,-0.343600,-0.285073
361801903.00,-0.344941,-0.283643
361802004.00,-0.346574,-0.281703
361802104.00,-0.347579,-0.279884
361802205.00,-0.348447,-0.278217
361802305.00,-0.349100,-0.275833
361802406.00,-0.349964,-0.274143
361802506.00,-0.350950,-0.272797
361802607.00,-0.351421,-0.271157
361802707.00,-0.352044,-0.269648
361802808.00,-0.352567,-0.268160
361802908.00,-0.352881,-0.266871
361803009.00,-0.353485,-0.265639
361803109.00,-0.353387,-0.263962
361803210.00,-0.353332,-0.262416
361803310.00,-0.353824,-0.261122
361803411.00,-0.353355,-0.259936
361803511.00,-0.353865,-0.258680
361803612.00,-0.353999,-0.257780
361803712.00,-0.353609,-0.256552
361803813.00,-0.353685,-0.255798
361803913.00,-0.353406,-0.254340
361804014.00,-0.353397,-0.253502
361804114.00,-0.352958,-0.252377
361804215.00,-0.352996,-0.251686
361804315.00,-0.352789,-0.251079
361804416.00,-0.352787,-0.249810
361804516.00,-0.352178,-0.249106
361804617.00,-0.352619,-0.248846
361804717.00,-0.352395,-0.248101
361804818.00,-0.352136,-0.247130
361804918.00,-0.351819,-0.246243
361805019.00,-0.351124,-0.245655
361805119.00,-0.351420,-0.245009
361805220.00,-0.350721,-0.244131
361805320.00,-0.350872,-0.243779
361805421.00,-0.350348,-0.243403
361805521.00,-0.350056,-0.243160
361805622.00,-0.350027,-0.242243
361805722.00,-0.350017,-0.241312
361805823.00,-0.349681,-0.240910
361805923.00,-0.349638,-0.240730
361806024.00,-0.349589,-0.240392
361806124.00,-0.349227,-0.240029
361806225.00,-0.348948,-0.239754
361806325.00,-0.349095,-0.239166
361806426.00,-0.348994,-0.238357
361806526.00,-0.348131,-0.238231
361806627.00,-0.347991,-0.237875
361806728.00,-0.348157,-0.237777
