DATE: 2018/06/07
TIME: 07:09:02
Frequency(Hz),	I(V),	Q(V)
342192798.00,-0.247046,-0.288323
342192898.00,-0.246480,-0.288302
342192999.00,-0.246842,-0.287858
342193099.00,-0.246711,-0.287575
342193200.00,-0.246991,-0.287394
342193300.00,-0.247009,-0.287515
342193401.00,-0.246675,-0.286927
342193501.00,-0.246943,-0.287689
342193602.00,-0.246975,-0.287067
342193702.00,-0.246581,-0.287422
342193803.00,-0.246762,-0.286695
342193903.00,-0.247149,-0.286535
342194004.00,-0.247024,-0.286558
342194104.00,-0.247311,-0.287127
342194205.00,-0.247193,-0.286704
342194305.00,-0.247706,-0.286666
342194406.00,-0.247575,-0.286700
342194506.00,-0.247638,-0.286701
342194607.00,-0.247590,-0.286576
342194707.00,-0.247809,-0.286419
342194808.00,-0.247639,-0.286361
342194908.00,-0.247676,-0.286352
342195009.00,-0.248044,-0.286442
342195109.00,-0.248156,-0.286205
342195210.00,-0.248470,-0.286141
342195310.00,-0.248289,-0.285649
342195411.00,-0.248309,-0.285776
342195511.00,-0.247487,-0.286043
342195612.00,-0.247964,-0.286076
342195712.00,-0.248017,-0.285374
342195813.00,-0.248737,-0.285675
342195913.00,-0.248475,-0.284708
342196014.00,-0.248757,-0.284621
342196114.00,-0.248060,-0.284539
342196215.00,-0.248393,-0.284108
342196315.00,-0.248489,-0.284183
342196416.00,-0.248299,-0.284686
342196516.00,-0.248520,-0.284330
342196617.00,-0.248892,-0.283914
342196717.00,-0.249128,-0.283851
342196818.00,-0.249099,-0.283795
342196918.00,-0.248875,-0.283820
342197019.00,-0.248789,-0.283654
342197119.00,-0.248964,-0.283323
342197220.00,-0.248303,-0.283091
342197320.00,-0.248493,-0.283420
342197421.00,-0.248699,-0.283163
342197521.00,-0.248749,-0.283029
342197622.00,-0.248890,-0.282829
342197722.00,-0.249105,-0.282684
342197823.00,-0.249190,-0.282243
342197923.00,-0.249315,-0.282138
342198024.00,-0.249451,-0.282198
342198124.00,-0.249686,-0.282286
342198225.00,-0.249415,-0.281887
342198325.00,-0.249499,-0.281867
342198426.00,-0.249750,-0.281357
342198526.00,-0.249742,-0.281158
342198627.00,-0.249789,-0.280902
342198727.00,-0.249912,-0.280743
342198828.00,-0.250486,-0.280040
342198928.00,-0.250195,-0.280098
342199029.00,-0.249873,-0.279872
342199129.00,-0.250358,-0.279613
342199230.00,-0.250665,-0.279264
342199330.00,-0.250310,-0.279054
342199431.00,-0.250773,-0.279240
342199531.00,-0.250575,-0.278942
342199632.00,-0.251021,-0.278324
342199732.00,-0.251434,-0.278313
342199833.00,-0.251264,-0.278182
342199933.00,-0.251349,-0.277443
342200034.00,-0.251678,-0.276822
342200134.00,-0.251003,-0.276660
342200235.00,-0.251716,-0.277004
342200335.00,-0.251855,-0.276621
342200436.00,-0.251320,-0.275911
342200536.00,-0.252006,-0.276071
342200637.00,-0.251817,-0.275531
342200737.00,-0.251763,-0.274956
342200838.00,-0.252098,-0.274427
342200938.00,-0.252682,-0.274652
342201039.00,-0.252062,-0.273943
342201139.00,-0.252307,-0.273605
342201240.00,-0.252233,-0.272948
342201340.00,-0.252370,-0.272278
342201441.00,-0.252491,-0.271947
342201541.00,-0.252430,-0.271536
342201642.00,-0.252309,-0.271295
342201742.00,-0.252905,-0.270384
342201843.00,-0.252398,-0.269888
342201943.00,-0.252687,-0.270013
342202044.00,-0.252708,-0.269142
342202144.00,-0.253074,-0.268783
342202245.00,-0.252920,-0.268507
342202345.00,-0.252933,-0.267695
342202446.00,-0.252675,-0.267294
342202546.00,-0.252699,-0.266400
342202647.00,-0.252572,-0.265592
342202747.00,-0.252830,-0.265078
342202848.00,-0.252796,-0.264411
342202948.00,-0.252695,-0.263615
342203049.00,-0.252628,-0.262702
342203149.00,-0.252158,-0.261952
342203250.00,-0.252462,-0.261152
342203350.00,-0.251880,-0.260686
342203451.00,-0.251916,-0.259571
342203551.00,-0.252024,-0.259066
342203652.00,-0.251681,-0.257732
342203752.00,-0.251332,-0.257238
342203853.00,-0.251165,-0.255780
342203953.00,-0.250796,-0.254735
342204054.00,-0.250472,-0.253708
342204154.00,-0.250350,-0.252776
342204255.00,-0.249422,-0.251735
342204355.00,-0.249478,-0.250665
342204456.00,-0.248453,-0.249416
342204556.00,-0.248809,-0.248423
342204657.00,-0.247688,-0.246702
342204757.00,-0.247297,-0.245311
342204858.00,-0.246239,-0.243523
342204958.00,-0.245650,-0.243061
342205059.00,-0.244891,-0.241109
342205159.00,-0.243438,-0.239370
342205260.00,-0.242251,-0.237671
342205360.00,-0.241013,-0.236129
342205461.00,-0.239130,-0.234414
342205561.00,-0.237393,-0.233403
342205662.00,-0.235874,-0.231742
342205762.00,-0.233454,-0.230727
342205863.00,-0.230805,-0.229163
342205963.00,-0.228118,-0.227626
342206064.00,-0.226041,-0.226125
342206164.00,-0.222858,-0.225438
342206265.00,-0.219398,-0.223896
342206365.00,-0.216043,-0.223595
342206466.00,-0.212430,-0.222944
342206566.00,-0.208719,-0.222734
342206667.00,-0.204913,-0.222760
342206767.00,-0.200372,-0.223986
342206868.00,-0.195564,-0.224537
342206968.00,-0.191529,-0.225012
342207069.00,-0.187729,-0.226879
342207169.00,-0.183060,-0.228730
342207270.00,-0.179070,-0.231067
342207370.00,-0.175341,-0.234400
342207471.00,-0.171997,-0.237990
342207571.00,-0.168970,-0.241238
342207672.00,-0.166377,-0.244475
342207772.00,-0.163693,-0.249205
342207873.00,-0.162376,-0.252913
342207973.00,-0.160778,-0.257307
342208074.00,-0.159912,-0.260266
342208174.00,-0.159112,-0.265734
342208275.00,-0.159095,-0.269400
342208375.00,-0.159430,-0.272906
342208476.00,-0.159509,-0.276764
342208576.00,-0.160001,-0.279804
342208677.00,-0.161798,-0.283137
342208777.00,-0.162877,-0.285817
342208878.00,-0.164812,-0.288668
342208978.00,-0.166259,-0.291111
342209079.00,-0.167788,-0.293315
342209179.00,-0.168950,-0.295129
342209280.00,-0.170209,-0.297419
342209380.00,-0.172859,-0.299110
342209481.00,-0.173834,-0.300234
342209581.00,-0.175971,-0.302106
342209682.00,-0.177347,-0.303098
342209782.00,-0.179009,-0.304276
342209883.00,-0.180895,-0.305232
342209983.00,-0.182872,-0.306154
342210084.00,-0.184045,-0.307241
342210184.00,-0.185596,-0.307834
342210285.00,-0.187048,-0.307849
342210385.00,-0.188531,-0.308794
342210486.00,-0.190014,-0.309387
342210586.00,-0.191091,-0.309743
342210687.00,-0.192203,-0.310391
342210787.00,-0.193155,-0.310640
342210888.00,-0.194972,-0.310889
342210988.00,-0.195584,-0.310518
342211089.00,-0.196961,-0.311115
342211189.00,-0.198410,-0.311216
342211290.00,-0.199196,-0.311839
342211390.00,-0.200167,-0.311925
342211491.00,-0.200985,-0.311694
342211591.00,-0.201877,-0.312206
342211692.00,-0.203255,-0.311973
342211792.00,-0.203330,-0.312068
342211893.00,-0.204356,-0.312153
342211993.00,-0.204838,-0.312062
342212094.00,-0.205487,-0.312029
342212194.00,-0.206299,-0.311723
342212295.00,-0.207306,-0.311626
342212395.00,-0.207886,-0.311576
342212496.00,-0.208625,-0.311775
342212596.00,-0.209195,-0.312088
342212697.00,-0.210016,-0.311943
342212798.00,-0.210151,-0.311712
