DATE: 2018/06/07
TIME: 06:28:45
Frequency(Hz),	I(V),	Q(V)
331627927.00,-0.345911,-0.246268
331628027.00,-0.345785,-0.246555
331628128.00,-0.345292,-0.246472
331628228.00,-0.345048,-0.246266
331628329.00,-0.345074,-0.246474
331628429.00,-0.344621,-0.246417
331628530.00,-0.344760,-0.246046
331628630.00,-0.344454,-0.245836
331628731.00,-0.344370,-0.246275
331628831.00,-0.343525,-0.246391
331628932.00,-0.343608,-0.245829
331629032.00,-0.343297,-0.246071
331629133.00,-0.343403,-0.246213
331629233.00,-0.343227,-0.245933
331629334.00,-0.343091,-0.245733
331629434.00,-0.342597,-0.245424
331629535.00,-0.342248,-0.245588
331629635.00,-0.342350,-0.245627
331629736.00,-0.341855,-0.245474
331629836.00,-0.341783,-0.245657
331629937.00,-0.341836,-0.245458
331630037.00,-0.341149,-0.245248
331630138.00,-0.341366,-0.244662
331630238.00,-0.341101,-0.244663
331630339.00,-0.340768,-0.244952
331630439.00,-0.340837,-0.245005
331630540.00,-0.340335,-0.245219
331630640.00,-0.339914,-0.245211
331630741.00,-0.339947,-0.245021
331630841.00,-0.339240,-0.244900
331630942.00,-0.339156,-0.244790
331631042.00,-0.338543,-0.244509
331631143.00,-0.338230,-0.244629
331631243.00,-0.338276,-0.244323
331631344.00,-0.338175,-0.244153
331631444.00,-0.338143,-0.244405
331631545.00,-0.337749,-0.244264
331631645.00,-0.336671,-0.244223
331631746.00,-0.335838,-0.244023
331631846.00,-0.335720,-0.244167
331631947.00,-0.335558,-0.244071
331632047.00,-0.335078,-0.243949
331632148.00,-0.334724,-0.244185
331632248.00,-0.334413,-0.244084
331632349.00,-0.334490,-0.243683
331632449.00,-0.333724,-0.244105
331632550.00,-0.333556,-0.244292
331632650.00,-0.332869,-0.244451
331632751.00,-0.332487,-0.244279
331632851.00,-0.331893,-0.243998
331632952.00,-0.331944,-0.244073
331633052.00,-0.331247,-0.244279
331633153.00,-0.330840,-0.243839
331633253.00,-0.330596,-0.243696
331633354.00,-0.330310,-0.243942
331633454.00,-0.329570,-0.243926
331633555.00,-0.328931,-0.244082
331633655.00,-0.328242,-0.244219
331633756.00,-0.327777,-0.243809
331633856.00,-0.327082,-0.243818
331633957.00,-0.326973,-0.243840
331634057.00,-0.326168,-0.244069
331634158.00,-0.325489,-0.244137
331634258.00,-0.325157,-0.244116
331634359.00,-0.324560,-0.243891
331634459.00,-0.323771,-0.244077
331634560.00,-0.323515,-0.243858
331634660.00,-0.322669,-0.243943
331634761.00,-0.321920,-0.244008
331634861.00,-0.321448,-0.243540
331634962.00,-0.320036,-0.243565
331635062.00,-0.319967,-0.243603
331635163.00,-0.319322,-0.243675
331635263.00,-0.318334,-0.243437
331635364.00,-0.317127,-0.243673
331635464.00,-0.316576,-0.243310
331635565.00,-0.315440,-0.243679
331635665.00,-0.314838,-0.243958
331635766.00,-0.313579,-0.243770
331635866.00,-0.312442,-0.243820
331635967.00,-0.311508,-0.243854
331636067.00,-0.310502,-0.243827
331636168.00,-0.309576,-0.244054
331636268.00,-0.308429,-0.243870
331636369.00,-0.307299,-0.244520
331636469.00,-0.306449,-0.244574
331636570.00,-0.305362,-0.244887
331636670.00,-0.303596,-0.245133
331636771.00,-0.302509,-0.244968
331636871.00,-0.300813,-0.245453
331636972.00,-0.299505,-0.245784
331637072.00,-0.298311,-0.245881
331637173.00,-0.297051,-0.246320
331637273.00,-0.295339,-0.247068
331637374.00,-0.293970,-0.247356
331637474.00,-0.292440,-0.247702
331637575.00,-0.290764,-0.248676
331637675.00,-0.288519,-0.249147
331637776.00,-0.286984,-0.249775
331637876.00,-0.284784,-0.250709
331637977.00,-0.283967,-0.251513
331638077.00,-0.281196,-0.252681
331638178.00,-0.279166,-0.253548
331638278.00,-0.277135,-0.254857
331638379.00,-0.274928,-0.255881
331638479.00,-0.272185,-0.257450
331638580.00,-0.270253,-0.258375
331638680.00,-0.267690,-0.260400
331638781.00,-0.265160,-0.262048
331638881.00,-0.262317,-0.264461
331638982.00,-0.259709,-0.266634
331639082.00,-0.256225,-0.269602
331639183.00,-0.253544,-0.271707
331639283.00,-0.250781,-0.275044
331639384.00,-0.247865,-0.278895
331639484.00,-0.244416,-0.283307
331639585.00,-0.241472,-0.287441
331639685.00,-0.237965,-0.292338
331639786.00,-0.235138,-0.298721
331639886.00,-0.232802,-0.304496
331639987.00,-0.230037,-0.312007
331640087.00,-0.228327,-0.318979
331640188.00,-0.227175,-0.327394
331640288.00,-0.227230,-0.337490
331640389.00,-0.227863,-0.346616
331640489.00,-0.230308,-0.356817
331640590.00,-0.233372,-0.365639
331640690.00,-0.237664,-0.375149
331640791.00,-0.243016,-0.382754
331640891.00,-0.249585,-0.391050
331640992.00,-0.257008,-0.397894
331641092.00,-0.264809,-0.403642
331641193.00,-0.273353,-0.408734
331641293.00,-0.282113,-0.411915
331641394.00,-0.289339,-0.414374
331641494.00,-0.297632,-0.416303
331641595.00,-0.305962,-0.417627
331641695.00,-0.313226,-0.418001
331641796.00,-0.320976,-0.417695
331641896.00,-0.328301,-0.417244
331641997.00,-0.335154,-0.415558
331642097.00,-0.340181,-0.414012
331642198.00,-0.347230,-0.412105
331642298.00,-0.352795,-0.410139
331642399.00,-0.358575,-0.407338
331642499.00,-0.363119,-0.404392
331642600.00,-0.368519,-0.401118
331642700.00,-0.372847,-0.397915
331642801.00,-0.376399,-0.395222
331642901.00,-0.380819,-0.391845
331643002.00,-0.384806,-0.388000
331643102.00,-0.387830,-0.385123
331643203.00,-0.390803,-0.381256
331643303.00,-0.393319,-0.377844
331643404.00,-0.394870,-0.374773
331643504.00,-0.396785,-0.371132
331643605.00,-0.398678,-0.368314
331643705.00,-0.400812,-0.364936
331643806.00,-0.401900,-0.361316
331643906.00,-0.403319,-0.357951
331644007.00,-0.404313,-0.355281
331644107.00,-0.405451,-0.352337
331644208.00,-0.406124,-0.349226
331644308.00,-0.407349,-0.346364
331644409.00,-0.407560,-0.344096
331644509.00,-0.407807,-0.341929
331644610.00,-0.408637,-0.338985
331644710.00,-0.408915,-0.336698
331644811.00,-0.409168,-0.334697
331644911.00,-0.409624,-0.332505
331645012.00,-0.409261,-0.330344
331645112.00,-0.410007,-0.328517
331645213.00,-0.410255,-0.326094
331645313.00,-0.409729,-0.323937
331645414.00,-0.409471,-0.322038
331645514.00,-0.409464,-0.319912
331645615.00,-0.409425,-0.318694
331645715.00,-0.409489,-0.317085
331645816.00,-0.408996,-0.315258
331645916.00,-0.408943,-0.314254
331646017.00,-0.408465,-0.312617
331646117.00,-0.408380,-0.311327
331646218.00,-0.408022,-0.309813
331646318.00,-0.407743,-0.308471
331646419.00,-0.407248,-0.307210
331646519.00,-0.407362,-0.306002
331646620.00,-0.406998,-0.304654
331646720.00,-0.406612,-0.303711
331646821.00,-0.406050,-0.302843
331646921.00,-0.406069,-0.301524
331647022.00,-0.406139,-0.301036
331647122.00,-0.405536,-0.300220
331647223.00,-0.405116,-0.299288
331647323.00,-0.404771,-0.298186
331647424.00,-0.404368,-0.297820
331647524.00,-0.404586,-0.296829
331647625.00,-0.404036,-0.296359
331647725.00,-0.403788,-0.295164
331647826.00,-0.403339,-0.294843
331647927.00,-0.403271,-0.293689
